keV	cps	count
 0.000	   0.000	       0
 0.020	   0.000	       0
 0.040	   0.000	       0
 0.060	   0.000	       0
 0.080	   0.000	       0
 0.100	   0.000	       0
 0.120	   0.000	       0
 0.140	   0.000	       0
 0.160	   0.000	       0
 0.180	   0.000	       0
 0.200	   0.000	       0
 0.220	   0.000	       0
 0.240	   0.000	       0
 0.260	   0.000	       0
 0.280	   0.000	       0
 0.300	   0.000	       0
 0.320	   0.000	       0
 0.340	   0.000	       0
 0.360	   0.000	       0
 0.380	   0.000	       0
 0.400	   0.000	       0
 0.420	   0.000	       0
 0.440	   0.000	       0
 0.460	   0.000	       0
 0.480	   0.174	      22
 0.500	   0.190	      24
 0.520	   0.150	      19
 0.540	   0.174	      22
 0.560	   0.150	      19
 0.580	   0.142	      18
 0.600	   0.119	      15
 0.620	   0.245	      31
 0.640	   0.158	      20
 0.660	   0.142	      18
 0.680	   0.135	      17
 0.700	   0.119	      15
 0.720	   0.119	      15
 0.740	   0.127	      16
 0.760	   0.119	      15
 0.780	   0.087	      11
 0.800	   0.111	      14
 0.820	   0.063	       8
 0.840	   0.079	      10
 0.860	   0.087	      11
 0.880	   0.063	       8
 0.900	   0.095	      12
 0.920	   0.063	       8
 0.940	   0.103	      13
 0.960	   0.111	      14
 0.980	   0.119	      15
 1.000	   0.079	      10
 1.010	   0.055	       7
 1.030	   0.055	       7
 1.050	   0.071	       9
 1.070	   0.119	      15
 1.090	   0.142	      18
 1.110	   0.166	      21
 1.130	   0.127	      16
 1.150	   0.166	      21
 1.170	   0.198	      25
 1.190	   0.127	      16
 1.210	   0.095	      12
 1.230	   0.158	      20
 1.250	   0.174	      22
 1.270	   0.158	      20
 1.290	   0.174	      22
 1.310	   0.111	      14
 1.330	   0.166	      21
 1.350	   0.142	      18
 1.370	   0.119	      15
 1.390	   0.142	      18
 1.410	   0.174	      22
 1.430	   0.222	      28
 1.450	   0.174	      22
 1.470	   0.182	      23
 1.490	   0.190	      24
 1.510	   0.190	      24
 1.530	   0.166	      21
 1.550	   0.135	      17
 1.570	   0.214	      27
 1.590	   0.142	      18
 1.610	   0.206	      26
 1.630	   0.206	      26
 1.650	   0.253	      32
 1.670	   0.174	      22
 1.690	   0.214	      27
 1.710	   0.166	      21
 1.730	   0.214	      27
 1.750	   0.174	      22
 1.770	   0.214	      27
 1.790	   0.182	      23
 1.810	   0.198	      25
 1.830	   0.174	      22
 1.850	   0.229	      29
 1.870	   0.269	      34
 1.890	   0.229	      29
 1.910	   0.245	      31
 1.930	   0.269	      34
 1.950	   0.261	      33
 1.970	   0.245	      31
 1.990	   0.214	      27
 2.010	   0.222	      28
 2.030	   0.277	      35
 2.050	   0.277	      35
 2.070	   0.206	      26
 2.090	   0.237	      30
 2.110	   0.182	      23
 2.130	   0.253	      32
 2.150	   0.182	      23
 2.170	   0.301	      38
 2.190	   0.269	      34
 2.210	   0.269	      34
 2.230	   0.198	      25
 2.250	   0.285	      36
 2.270	   0.237	      30
 2.290	   0.253	      32
 2.310	   0.324	      41
 2.330	   0.237	      30
 2.350	   0.237	      30
 2.370	   0.214	      27
 2.390	   0.301	      38
 2.410	   0.245	      31
 2.430	   0.348	      44
 2.450	   0.285	      36
 2.470	   0.166	      21
 2.490	   0.190	      24
 2.510	   0.182	      23
 2.530	   0.269	      34
 2.550	   0.245	      31
 2.570	   0.245	      31
 2.590	   0.158	      20
 2.610	   0.253	      32
 2.630	   0.166	      21
 2.650	   0.285	      36
 2.670	   0.245	      31
 2.690	   0.332	      42
 2.710	   0.142	      18
 2.730	   0.222	      28
 2.750	   0.222	      28
 2.770	   0.198	      25
 2.790	   0.190	      24
 2.810	   0.301	      38
 2.830	   0.229	      29
 2.850	   0.277	      35
 2.870	   0.198	      25
 2.890	   0.190	      24
 2.910	   0.277	      35
 2.930	   0.229	      29
 2.950	   0.229	      29
 2.970	   0.190	      24
 2.990	   0.253	      32
 3.010	   0.158	      20
 3.031	   0.237	      30
 3.051	   0.245	      31
 3.071	   0.269	      34
 3.091	   0.237	      30
 3.111	   0.301	      38
 3.131	   0.222	      28
 3.151	   0.206	      26
 3.171	   0.237	      30
 3.191	   0.222	      28
 3.211	   0.316	      40
 3.231	   0.198	      25
 3.251	   0.174	      22
 3.271	   0.206	      26
 3.291	   0.237	      30
 3.311	   0.206	      26
 3.331	   0.214	      27
 3.351	   0.190	      24
 3.371	   0.206	      26
 3.391	   0.222	      28
 3.411	   0.229	      29
 3.431	   0.253	      32
 3.451	   0.237	      30
 3.471	   0.222	      28
 3.491	   0.198	      25
 3.511	   0.253	      32
 3.531	   0.150	      19
 3.551	   0.293	      37
 3.571	   0.190	      24
 3.591	   0.285	      36
 3.611	   0.237	      30
 3.631	   0.158	      20
 3.651	   0.237	      30
 3.671	   0.206	      26
 3.691	   0.182	      23
 3.711	   0.237	      30
 3.731	   0.222	      28
 3.751	   0.301	      38
 3.771	   0.229	      29
 3.791	   0.222	      28
 3.811	   0.237	      30
 3.831	   0.142	      18
 3.851	   0.174	      22
 3.871	   0.150	      19
 3.891	   0.214	      27
 3.911	   0.174	      22
 3.931	   0.158	      20
 3.951	   0.253	      32
 3.971	   0.261	      33
 3.991	   0.198	      25
 4.011	   0.222	      28
 4.031	   0.245	      31
 4.051	   0.174	      22
 4.071	   0.261	      33
 4.091	   0.174	      22
 4.111	   0.174	      22
 4.131	   0.190	      24
 4.151	   0.198	      25
 4.171	   0.198	      25
 4.191	   0.158	      20
 4.211	   0.214	      27
 4.231	   0.174	      22
 4.251	   0.095	      12
 4.271	   0.237	      30
 4.291	   0.277	      35
 4.311	   0.174	      22
 4.331	   0.206	      26
 4.351	   0.356	      45
 4.371	   0.135	      17
 4.391	   0.229	      29
 4.411	   0.229	      29
 4.431	   0.245	      31
 4.451	   0.285	      36
 4.471	   0.269	      34
 4.491	   0.206	      26
 4.511	   0.229	      29
 4.531	   0.277	      35
 4.551	   0.301	      38
 4.571	   0.166	      21
 4.591	   0.285	      36
 4.611	   0.348	      44
 4.631	   0.324	      41
 4.651	   0.285	      36
 4.671	   0.324	      41
 4.691	   0.404	      51
 4.711	   0.372	      47
 4.731	   0.348	      44
 4.751	   0.237	      30
 4.771	   0.332	      42
 4.791	   0.285	      36
 4.811	   0.309	      39
 4.831	   0.253	      32
 4.851	   0.269	      34
 4.871	   0.348	      44
 4.891	   0.229	      29
 4.911	   0.245	      31
 4.931	   0.245	      31
 4.951	   0.206	      26
 4.971	   0.309	      39
 4.991	   0.277	      35
 5.011	   0.253	      32
 5.031	   0.158	      20
 5.051	   0.309	      39
 5.071	   0.316	      40
 5.091	   0.135	      17
 5.111	   0.229	      29
 5.131	   0.316	      40
 5.151	   0.222	      28
 5.171	   0.269	      34
 5.191	   0.316	      40
 5.211	   0.293	      37
 5.231	   0.245	      31
 5.251	   0.261	      33
 5.271	   0.245	      31
 5.291	   0.214	      27
 5.311	   0.340	      43
 5.331	   0.269	      34
 5.351	   0.245	      31
 5.372	   0.269	      34
 5.392	   0.293	      37
 5.412	   0.293	      37
 5.432	   0.301	      38
 5.452	   0.316	      40
 5.472	   0.253	      32
 5.492	   0.261	      33
 5.512	   0.348	      44
 5.532	   0.356	      45
 5.552	   0.261	      33
 5.572	   0.309	      39
 5.592	   0.269	      34
 5.612	   0.182	      23
 5.632	   0.332	      42
 5.652	   0.356	      45
 5.672	   0.301	      38
 5.692	   0.332	      42
 5.712	   0.285	      36
 5.732	   0.285	      36
 5.752	   0.293	      37
 5.772	   0.348	      44
 5.792	   0.301	      38
 5.812	   0.356	      45
 5.832	   0.419	      53
 5.852	   0.340	      43
 5.872	   0.380	      48
 5.892	   0.372	      47
 5.912	   0.380	      48
 5.932	   0.372	      47
 5.952	   0.459	      58
 5.972	   0.530	      67
 5.992	   0.506	      64
 6.012	   0.680	      86
 6.032	   0.601	      76
 6.052	   0.965	     122
 6.072	   1.108	     140
 6.092	   1.495	     189
 6.112	   2.089	     264
 6.132	   2.500	     316
 6.152	   3.679	     465
 6.172	   4.985	     630
 6.192	   6.551	     828
 6.212	   8.482	    1072
 6.232	  11.014	    1392
 6.252	  12.849	    1624
 6.272	  15.800	    1997
 6.292	  18.878	    2386
 6.312	  20.785	    2627
 6.332	  25.303	    3198
 6.352	  25.674	    3245
 6.372	  28.096	    3551
 6.392	  27.914	    3528
 6.412	  27.819	    3516
 6.432	  26.466	    3345
 6.452	  25.785	    3259
 6.472	  23.071	    2916
 6.492	  19.764	    2498
 6.512	  17.422	    2202
 6.532	  15.104	    1909
 6.552	  11.836	    1496
 6.572	   9.930	    1255
 6.592	   6.836	     864
 6.612	   5.633	     712
 6.632	   4.146	     524
 6.652	   3.007	     380
 6.672	   2.571	     325
 6.692	   1.923	     243
 6.712	   1.480	     187
 6.732	   1.282	     162
 6.752	   1.408	     178
 6.772	   1.337	     169
 6.792	   1.305	     165
 6.812	   1.693	     214
 6.832	   1.812	     229
 6.852	   2.271	     287
 6.872	   2.975	     376
 6.892	   3.331	     421
 6.912	   4.193	     530
 6.932	   4.977	     629
 6.952	   5.507	     696
 6.972	   6.401	     809
 6.992	   6.978	     882
 7.012	   7.453	     942
 7.032	   7.999	    1011
 7.052	   7.936	    1003
 7.072	   8.118	    1026
 7.092	   7.659	     968
 7.112	   6.963	     880
 7.132	   6.472	     818
 7.152	   5.570	     704
 7.172	   5.024	     635
 7.192	   4.534	     573
 7.212	   3.386	     428
 7.232	   2.880	     364
 7.252	   2.548	     322
 7.272	   2.160	     273
 7.292	   1.582	     200
 7.312	   1.519	     192
 7.332	   1.171	     148
 7.352	   0.997	     126
 7.372	   1.036	     131
 7.392	   0.870	     110
 7.412	   1.013	     128
 7.432	   0.973	     123
 7.452	   1.060	     134
 7.472	   1.036	     131
 7.492	   1.313	     166
 7.512	   1.100	     139
 7.532	   1.361	     172
 7.552	   1.274	     161
 7.572	   1.749	     221
 7.592	   1.907	     241
 7.612	   2.532	     320
 7.632	   3.307	     418
 7.652	   4.375	     553
 7.672	   6.290	     795
 7.692	   9.328	    1179
 7.713	  13.830	    1748
 7.733	  19.416	    2454
 7.753	  29.583	    3739
 7.773	  42.630	    5388
 7.793	  60.187	    7607
 7.813	  83.274	   10525
 7.833	 112.398	   14206
 7.853	 150.186	   18982
 7.873	 192.887	   24379
 7.893	 241.870	   30570
 7.913	 294.454	   37216
 7.933	 348.168	   44005
 7.953	 399.399	   50480
 7.973	 449.284	   56785
 7.993	 486.811	   61528
 8.013	 518.356	   65515
 8.033	 531.387	   67162
 8.053	 535.193	   67643
 8.073	 520.840	   65829
 8.093	 492.491	   62246
 8.113	 451.515	   57067
 8.133	 403.378	   50983
 8.153	 350.447	   44293
 8.173	 296.811	   37514
 8.193	 244.165	   30860
 8.213	 194.707	   24609
 8.233	 151.112	   19099
 8.253	 115.792	   14635
 8.273	  85.236	   10773
 8.293	  61.215	    7737
 8.313	  42.092	    5320
 8.333	  30.113	    3806
 8.353	  19.646	    2483
 8.373	  14.250	    1801
 8.393	   9.218	    1165
 8.413	   6.440	     814
 8.433	   5.024	     635
 8.453	   3.386	     428
 8.473	   3.181	     402
 8.493	   3.196	     404
 8.513	   2.777	     351
 8.533	   2.967	     375
 8.553	   3.734	     472
 8.573	   4.407	     557
 8.593	   5.562	     703
 8.613	   6.844	     865
 8.633	   8.980	    1135
 8.653	  11.219	    1418
 8.673	  15.191	    1920
 8.693	  19.163	    2422
 8.713	  24.654	    3116
 8.733	  30.596	    3867
 8.753	  37.487	    4738
 8.773	  45.834	    5793
 8.793	  52.235	    6602
 8.813	  61.967	    7832
 8.833	  67.213	    8495
 8.853	  74.072	    9362
 8.873	  77.213	    9759
 8.893	  81.969	   10360
 8.913	  80.987	   10236
 8.933	  78.677	    9944
 8.953	  74.112	    9367
 8.973	  69.444	    8777
 8.993	  62.418	    7889
 9.013	  53.912	    6814
 9.033	  46.182	    5837
 9.053	  39.584	    5003
 9.073	  31.743	    4012
 9.093	  24.622	    3112
 9.113	  19.408	    2453
 9.133	  14.297	    1807
 9.153	  10.381	    1312
 9.173	   7.224	     913
 9.193	   5.016	     634
 9.213	   3.157	     399
 9.233	   2.445	     309
 9.253	   1.677	     212
 9.273	   0.973	     123
 9.293	   0.704	      89
 9.313	   0.475	      60
 9.333	   0.356	      45
 9.353	   0.277	      35
 9.373	   0.222	      28
 9.393	   0.182	      23
 9.413	   0.198	      25
 9.433	   0.182	      23
 9.453	   0.182	      23
 9.473	   0.142	      18
 9.493	   0.119	      15
 9.513	   0.079	      10
 9.533	   0.095	      12
 9.553	   0.095	      12
 9.573	   0.103	      13
 9.593	   0.087	      11
 9.613	   0.103	      13
 9.633	   0.135	      17
 9.653	   0.142	      18
 9.673	   0.047	       6
 9.693	   0.079	      10
 9.713	   0.079	      10
 9.733	   0.095	      12
 9.753	   0.063	       8
 9.773	   0.087	      11
 9.793	   0.087	      11
 9.813	   0.063	       8
 9.833	   0.047	       6
 9.853	   0.095	      12
 9.873	   0.103	      13
 9.893	   0.103	      13
 9.913	   0.119	      15
 9.933	   0.047	       6
 9.953	   0.063	       8
 9.973	   0.063	       8
 9.993	   0.079	      10
10.013	   0.047	       6
10.033	   0.095	      12
10.054	   0.095	      12
10.074	   0.063	       8
10.094	   0.079	      10
10.114	   0.063	       8
10.134	   0.095	      12
10.154	   0.071	       9
10.174	   0.103	      13
10.194	   0.119	      15
10.214	   0.095	      12
10.234	   0.040	       5
10.254	   0.063	       8
10.274	   0.055	       7
10.294	   0.040	       5
10.314	   0.079	      10
10.334	   0.079	      10
10.354	   0.071	       9
10.374	   0.103	      13
10.394	   0.032	       4
10.414	   0.127	      16
10.434	   0.063	       8
10.454	   0.071	       9
10.474	   0.103	      13
10.494	   0.198	      25
10.514	   0.119	      15
10.534	   0.150	      19
10.554	   0.119	      15
10.574	   0.127	      16
10.594	   0.079	      10
10.614	   0.071	       9
10.634	   0.095	      12
10.654	   0.079	      10
10.674	   0.111	      14
10.694	   0.135	      17
10.714	   0.103	      13
10.734	   0.095	      12
10.754	   0.087	      11
10.774	   0.103	      13
10.794	   0.040	       5
10.814	   0.087	      11
10.834	   0.095	      12
10.854	   0.063	       8
10.874	   0.071	       9
10.894	   0.111	      14
10.914	   0.103	      13
10.934	   0.087	      11
10.954	   0.071	       9
10.974	   0.071	       9
10.994	   0.040	       5
11.014	   0.047	       6
11.034	   0.055	       7
11.054	   0.024	       3
11.074	   0.095	      12
11.094	   0.032	       4
11.114	   0.047	       6
11.134	   0.040	       5
11.154	   0.063	       8
11.174	   0.047	       6
11.194	   0.071	       9
11.214	   0.040	       5
11.234	   0.047	       6
11.254	   0.055	       7
11.274	   0.016	       2
11.294	   0.032	       4
11.314	   0.047	       6
11.334	   0.024	       3
11.354	   0.032	       4
11.374	   0.040	       5
11.394	   0.008	       1
11.414	   0.047	       6
11.434	   0.016	       2
11.454	   0.047	       6
11.474	   0.040	       5
11.494	   0.024	       3
11.514	   0.024	       3
11.534	   0.055	       7
11.554	   0.032	       4
11.574	   0.071	       9
11.594	   0.032	       4
11.614	   0.040	       5
11.634	   0.016	       2
11.654	   0.047	       6
11.674	   0.047	       6
11.694	   0.032	       4
11.714	   0.047	       6
11.734	   0.040	       5
11.754	   0.047	       6
11.774	   0.047	       6
11.794	   0.032	       4
11.814	   0.055	       7
11.834	   0.087	      11
11.854	   0.024	       3
11.874	   0.000	       0
11.894	   0.055	       7
11.914	   0.032	       4
11.934	   0.024	       3
11.954	   0.016	       2
11.974	   0.032	       4
11.994	   0.055	       7
12.014	   0.024	       3
12.034	   0.040	       5
12.054	   0.032	       4
12.074	   0.032	       4
12.094	   0.032	       4
12.114	   0.032	       4
12.134	   0.047	       6
12.154	   0.016	       2
12.174	   0.047	       6
12.194	   0.016	       2
12.214	   0.032	       4
12.234	   0.024	       3
12.254	   0.040	       5
12.274	   0.055	       7
12.294	   0.024	       3
12.314	   0.047	       6
12.334	   0.016	       2
12.354	   0.016	       2
12.374	   0.047	       6
12.395	   0.040	       5
12.415	   0.055	       7
12.435	   0.040	       5
12.455	   0.016	       2
12.475	   0.016	       2
12.495	   0.047	       6
12.515	   0.024	       3
12.535	   0.024	       3
12.555	   0.063	       8
12.575	   0.040	       5
12.595	   0.040	       5
12.615	   0.024	       3
12.635	   0.047	       6
12.655	   0.055	       7
12.675	   0.032	       4
12.695	   0.095	      12
12.715	   0.008	       1
12.735	   0.055	       7
12.755	   0.055	       7
12.775	   0.079	      10
12.795	   0.047	       6
12.815	   0.016	       2
12.835	   0.032	       4
12.855	   0.016	       2
12.875	   0.047	       6
12.895	   0.016	       2
12.915	   0.040	       5
12.935	   0.040	       5
12.955	   0.040	       5
12.975	   0.016	       2
12.995	   0.024	       3
13.015	   0.055	       7
13.035	   0.000	       0
13.055	   0.047	       6
13.075	   0.032	       4
13.095	   0.008	       1
13.115	   0.024	       3
13.135	   0.016	       2
13.155	   0.024	       3
13.175	   0.024	       3
13.195	   0.040	       5
13.215	   0.040	       5
13.235	   0.040	       5
13.255	   0.024	       3
13.275	   0.047	       6
13.295	   0.032	       4
13.315	   0.008	       1
13.335	   0.024	       3
13.355	   0.032	       4
13.375	   0.016	       2
13.395	   0.016	       2
13.415	   0.024	       3
13.435	   0.024	       3
13.455	   0.024	       3
13.475	   0.032	       4
13.495	   0.024	       3
13.515	   0.024	       3
13.535	   0.008	       1
13.555	   0.024	       3
13.575	   0.024	       3
13.595	   0.032	       4
13.615	   0.008	       1
13.635	   0.016	       2
13.655	   0.016	       2
13.675	   0.047	       6
13.695	   0.000	       0
13.715	   0.024	       3
13.735	   0.008	       1
13.755	   0.024	       3
13.775	   0.016	       2
13.795	   0.032	       4
13.815	   0.032	       4
13.835	   0.008	       1
13.855	   0.024	       3
13.875	   0.024	       3
13.895	   0.047	       6
13.915	   0.008	       1
13.935	   0.008	       1
13.955	   0.016	       2
13.975	   0.047	       6
13.995	   0.016	       2
14.015	   0.016	       2
14.035	   0.040	       5
14.055	   0.032	       4
14.075	   0.040	       5
14.095	   0.032	       4
14.115	   0.079	      10
14.135	   0.024	       3
14.155	   0.016	       2
14.175	   0.079	      10
14.195	   0.087	      11
14.215	   0.071	       9
14.235	   0.063	       8
14.255	   0.127	      16
14.275	   0.198	      25
14.295	   0.142	      18
14.315	   0.237	      30
14.335	   0.285	      36
14.355	   0.214	      27
14.375	   0.245	      31
14.395	   0.261	      33
14.415	   0.316	      40
14.435	   0.277	      35
14.455	   0.309	      39
14.475	   0.245	      31
14.495	   0.285	      36
14.515	   0.364	      46
14.535	   0.301	      38
14.555	   0.214	      27
14.575	   0.214	      27
14.595	   0.229	      29
14.615	   0.119	      15
14.635	   0.206	      26
14.655	   0.079	      10
14.675	   0.095	      12
14.695	   0.047	       6
14.715	   0.047	       6
14.736	   0.063	       8
14.756	   0.047	       6
14.776	   0.047	       6
14.796	   0.079	      10
14.816	   0.032	       4
14.836	   0.047	       6
14.856	   0.079	      10
14.876	   0.024	       3
14.896	   0.095	      12
14.916	   0.063	       8
14.936	   0.040	       5
14.956	   0.103	      13
14.976	   0.142	      18
14.996	   0.103	      13
15.016	   0.087	      11
15.036	   0.135	      17
15.056	   0.103	      13
15.076	   0.087	      11
15.096	   0.087	      11
15.116	   0.055	       7
15.136	   0.111	      14
15.156	   0.103	      13
15.176	   0.119	      15
15.196	   0.103	      13
15.216	   0.095	      12
15.236	   0.119	      15
15.256	   0.127	      16
15.276	   0.079	      10
15.296	   0.111	      14
15.316	   0.103	      13
15.336	   0.079	      10
15.356	   0.087	      11
15.376	   0.079	      10
15.396	   0.087	      11
15.416	   0.071	       9
15.436	   0.063	       8
15.456	   0.047	       6
15.476	   0.063	       8
15.496	   0.032	       4
15.516	   0.071	       9
15.536	   0.055	       7
15.556	   0.055	       7
15.576	   0.032	       4
15.596	   0.040	       5
15.616	   0.055	       7
15.636	   0.055	       7
15.656	   0.055	       7
15.676	   0.055	       7
15.696	   0.119	      15
15.716	   0.150	      19
15.736	   0.071	       9
15.756	   0.079	      10
15.776	   0.135	      17
15.796	   0.261	      33
15.816	   0.396	      50
15.836	   0.427	      54
15.856	   0.585	      74
15.876	   0.878	     111
15.896	   0.989	     125
15.916	   1.084	     137
15.936	   1.155	     146
15.956	   1.519	     192
15.976	   1.772	     224
15.996	   2.105	     266
16.016	   2.318	     293
16.036	   2.389	     302
16.056	   2.627	     332
16.076	   2.698	     341
16.096	   2.492	     315
16.116	   2.753	     348
16.136	   2.263	     286
16.156	   2.342	     296
16.176	   2.113	     267
16.196	   2.318	     293
16.216	   1.899	     240
16.236	   1.472	     186
16.256	   1.551	     196
16.276	   1.147	     145
16.296	   0.894	     113
16.316	   0.720	      91
16.336	   0.673	      85
16.356	   0.451	      57
16.376	   0.404	      51
16.396	   0.364	      46
16.416	   0.253	      32
16.436	   0.182	      23
16.456	   0.174	      22
16.476	   0.127	      16
16.496	   0.142	      18
16.516	   0.087	      11
16.536	   0.127	      16
16.556	   0.055	       7
16.576	   0.071	       9
16.596	   0.111	      14
16.616	   0.103	      13
16.636	   0.087	      11
16.656	   0.111	      14
16.676	   0.182	      23
16.696	   0.229	      29
16.716	   0.348	      44
16.736	   0.269	      34
16.756	   0.459	      58
16.776	   0.396	      50
16.796	   0.404	      51
16.816	   0.404	      51
16.836	   0.546	      69
16.856	   0.633	      80
16.876	   0.720	      91
16.896	   0.688	      87
16.916	   0.736	      93
16.936	   0.854	     108
16.956	   0.870	     110
16.976	   0.854	     108
16.996	   0.862	     109
17.016	   0.799	     101
17.036	   0.704	      89
17.056	   0.633	      80
17.077	   0.704	      89
17.097	   0.633	      80
17.117	   0.657	      83
17.137	   0.625	      79
17.157	   0.593	      75
17.177	   0.570	      72
17.197	   0.657	      83
17.217	   0.593	      75
17.237	   0.791	     100
17.257	   0.728	      92
17.277	   0.965	     122
17.297	   0.997	     126
17.317	   1.171	     148
17.337	   1.147	     145
17.357	   1.321	     167
17.377	   1.424	     180
17.397	   1.598	     202
17.417	   1.875	     237
17.437	   1.915	     242
17.457	   1.780	     225
17.477	   1.867	     236
17.497	   1.836	     232
17.517	   1.749	     221
17.537	   1.662	     210
17.557	   1.377	     174
17.577	   1.400	     177
17.597	   1.290	     163
17.617	   1.036	     131
17.637	   0.831	     105
17.657	   0.815	     103
17.677	   0.530	      67
17.697	   0.546	      69
17.717	   0.498	      63
17.737	   0.348	      44
17.757	   0.388	      49
17.777	   0.348	      44
17.797	   0.222	      28
17.817	   0.285	      36
17.837	   0.214	      27
17.857	   0.190	      24
17.877	   0.261	      33
17.897	   0.198	      25
17.917	   0.182	      23
17.937	   0.182	      23
17.957	   0.150	      19
17.977	   0.158	      20
17.997	   0.150	      19
18.017	   0.135	      17
18.037	   0.063	       8
18.057	   0.087	      11
18.077	   0.190	      24
18.097	   0.103	      13
18.117	   0.119	      15
18.137	   0.135	      17
18.157	   0.158	      20
18.177	   0.103	      13
18.197	   0.135	      17
18.217	   0.166	      21
18.237	   0.142	      18
18.257	   0.119	      15
18.277	   0.111	      14
18.297	   0.158	      20
18.317	   0.150	      19
18.337	   0.127	      16
18.357	   0.198	      25
18.377	   0.166	      21
18.397	   0.150	      19
18.417	   0.142	      18
18.437	   0.158	      20
18.457	   0.174	      22
18.477	   0.222	      28
18.497	   0.182	      23
18.517	   0.190	      24
18.537	   0.174	      22
18.557	   0.229	      29
18.577	   0.245	      31
18.597	   0.206	      26
18.617	   0.229	      29
18.637	   0.245	      31
18.657	   0.253	      32
18.677	   0.222	      28
18.697	   0.206	      26
18.717	   0.253	      32
18.737	   0.277	      35
18.757	   0.269	      34
18.777	   0.277	      35
18.797	   0.237	      30
18.817	   0.285	      36
18.837	   0.396	      50
18.857	   0.356	      45
18.877	   0.404	      51
18.897	   0.340	      43
18.917	   0.396	      50
18.937	   0.348	      44
18.957	   0.380	      48
18.977	   0.451	      57
18.997	   0.380	      48
19.017	   0.411	      52
19.037	   0.419	      53
19.057	   0.261	      33
19.077	   0.427	      54
19.097	   0.364	      46
19.117	   0.380	      48
19.137	   0.332	      42
19.157	   0.419	      53
19.177	   0.396	      50
19.197	   0.372	      47
19.217	   0.364	      46
19.237	   0.388	      49
19.257	   0.435	      55
19.277	   0.380	      48
19.297	   0.253	      32
19.317	   0.285	      36
19.337	   0.348	      44
19.357	   0.301	      38
19.377	   0.316	      40
19.397	   0.356	      45
19.418	   0.301	      38
19.438	   0.427	      54
19.458	   0.372	      47
19.478	   0.356	      45
19.498	   0.435	      55
19.518	   0.546	      69
19.538	   0.522	      66
19.558	   0.435	      55
19.578	   0.491	      62
19.598	   0.451	      57
19.618	   0.506	      64
19.638	   0.459	      58
19.658	   0.459	      58
19.678	   0.483	      61
19.698	   0.396	      50
19.718	   0.411	      52
19.738	   0.301	      38
19.758	   0.316	      40
19.778	   0.316	      40
19.798	   0.285	      36
19.818	   0.372	      47
19.838	   0.404	      51
19.858	   0.340	      43
19.878	   0.356	      45
19.898	   0.435	      55
19.918	   0.498	      63
19.938	   0.427	      54
19.958	   0.554	      70
19.978	   0.712	      90
19.998	   0.815	     103
20.018	   0.815	     103
20.038	   0.894	     113
20.058	   0.783	      99
20.078	   1.226	     155
20.098	   1.013	     128
20.118	   1.171	     148
20.138	   1.337	     169
20.158	   1.226	     155
20.178	   1.495	     189
20.198	   1.385	     175
20.218	   1.337	     169
20.238	   1.108	     140
20.258	   1.068	     135
20.278	   1.155	     146
20.298	   1.203	     152
20.318	   0.894	     113
20.338	   0.791	     100
20.358	   0.767	      97
20.378	   0.728	      92
20.398	   0.625	      79
20.418	   0.491	      62
20.438	   0.364	      46
20.458	   0.427	      54
20.478	   0.380	      48
20.498	   0.388	      49
20.518	   0.261	      33
20.538	   0.237	      30
20.558	   0.285	      36
20.578	   0.198	      25
20.598	   0.206	      26
20.618	   0.261	      33
20.638	   0.206	      26
20.658	   0.222	      28
20.678	   0.190	      24
20.698	   0.166	      21
20.718	   0.182	      23
20.738	   0.237	      30
20.758	   0.190	      24
20.778	   0.245	      31
20.798	   0.190	      24
20.818	   0.309	      39
20.838	   0.245	      31
20.858	   0.277	      35
20.878	   0.245	      31
20.898	   0.364	      46
20.918	   0.261	      33
20.938	   0.190	      24
20.958	   0.253	      32
20.978	   0.245	      31
20.998	   0.190	      24
21.018	   0.214	      27
21.038	   0.190	      24
21.058	   0.293	      37
21.078	   0.301	      38
21.098	   0.253	      32
21.118	   0.269	      34
21.138	   0.253	      32
21.158	   0.380	      48
21.178	   0.316	      40
21.198	   0.348	      44
21.218	   0.253	      32
21.238	   0.301	      38
21.258	   0.222	      28
21.278	   0.380	      48
21.298	   0.285	      36
21.318	   0.245	      31
21.338	   0.388	      49
21.358	   0.301	      38
21.378	   0.348	      44
21.398	   0.222	      28
21.418	   0.198	      25
21.438	   0.285	      36
21.458	   0.316	      40
21.478	   0.340	      43
21.498	   0.324	      41
21.518	   0.332	      42
21.538	   0.324	      41
21.558	   0.332	      42
21.578	   0.301	      38
21.598	   0.356	      45
21.618	   0.222	      28
21.638	   0.269	      34
21.658	   0.269	      34
21.678	   0.245	      31
21.698	   0.214	      27
21.718	   0.182	      23
21.738	   0.190	      24
21.759	   0.190	      24
21.779	   0.269	      34
21.799	   0.174	      22
21.819	   0.245	      31
21.839	   0.293	      37
21.859	   0.316	      40
21.879	   0.261	      33
21.899	   0.237	      30
21.919	   0.150	      19
21.939	   0.150	      19
21.959	   0.198	      25
21.979	   0.198	      25
21.999	   0.253	      32
22.019	   0.190	      24
22.039	   0.214	      27
22.059	   0.324	      41
22.079	   0.190	      24
22.099	   0.190	      24
22.119	   0.237	      30
22.139	   0.198	      25
22.159	   0.198	      25
22.179	   0.190	      24
22.199	   0.135	      17
22.219	   0.253	      32
22.239	   0.277	      35
22.259	   0.174	      22
22.279	   0.214	      27
22.299	   0.182	      23
22.319	   0.158	      20
22.339	   0.253	      32
22.359	   0.198	      25
22.379	   0.190	      24
22.399	   0.229	      29
22.419	   0.253	      32
22.439	   0.229	      29
22.459	   0.222	      28
22.479	   0.293	      37
22.499	   0.293	      37
22.519	   0.332	      42
22.539	   0.340	      43
22.559	   0.301	      38
22.579	   0.380	      48
22.599	   0.538	      68
22.619	   0.593	      75
22.639	   0.562	      71
22.659	   0.649	      82
22.679	   0.498	      63
22.699	   0.847	     107
22.719	   0.562	      71
22.739	   0.617	      78
22.759	   0.538	      68
22.779	   0.522	      66
22.799	   0.633	      80
22.819	   0.617	      78
22.839	   0.459	      58
22.859	   0.562	      71
22.879	   0.459	      58
22.899	   0.467	      59
22.919	   0.411	      52
22.939	   0.459	      58
22.959	   0.356	      45
22.979	   0.293	      37
22.999	   0.364	      46
23.019	   0.316	      40
23.039	   0.237	      30
23.059	   0.229	      29
23.079	   0.316	      40
23.099	   0.237	      30
23.119	   0.301	      38
23.139	   0.174	      22
23.159	   0.261	      33
23.179	   0.269	      34
23.199	   0.324	      41
23.219	   0.261	      33
23.239	   0.229	      29
23.259	   0.356	      45
23.279	   0.340	      43
23.299	   0.301	      38
23.319	   0.301	      38
23.339	   0.182	      23
23.359	   0.229	      29
23.379	   0.245	      31
23.399	   0.182	      23
23.419	   0.293	      37
23.439	   0.229	      29
23.459	   0.158	      20
23.479	   0.182	      23
23.499	   0.182	      23
23.519	   0.245	      31
23.539	   0.135	      17
23.559	   0.166	      21
23.579	   0.182	      23
23.599	   0.237	      30
23.619	   0.206	      26
23.639	   0.206	      26
23.659	   0.190	      24
23.679	   0.198	      25
23.699	   0.277	      35
23.719	   0.222	      28
23.739	   0.158	      20
23.759	   0.142	      18
23.779	   0.198	      25
23.799	   0.253	      32
23.819	   0.182	      23
23.839	   0.135	      17
23.859	   0.222	      28
23.879	   0.198	      25
23.899	   0.222	      28
23.919	   0.237	      30
23.939	   0.198	      25
23.959	   0.229	      29
23.979	   0.229	      29
23.999	   0.174	      22
24.019	   0.182	      23
24.039	   0.190	      24
24.059	   0.261	      33
24.079	   0.269	      34
24.100	   0.229	      29
24.120	   0.222	      28
24.140	   0.214	      27
24.160	   0.245	      31
24.180	   0.261	      33
24.200	   0.158	      20
24.220	   0.269	      34
24.240	   0.253	      32
24.260	   0.158	      20
24.280	   0.261	      33
24.300	   0.229	      29
24.320	   0.166	      21
24.340	   0.206	      26
24.360	   0.190	      24
24.380	   0.135	      17
24.400	   0.190	      24
24.420	   0.237	      30
24.440	   0.237	      30
24.460	   0.277	      35
24.480	   0.388	      49
24.500	   0.214	      27
24.520	   0.135	      17
24.540	   0.269	      34
24.560	   0.301	      38
24.580	   0.198	      25
24.600	   0.190	      24
24.620	   0.206	      26
24.640	   0.198	      25
24.660	   0.174	      22
24.680	   0.237	      30
24.700	   0.174	      22
24.720	   0.206	      26
24.740	   0.174	      22
24.760	   0.214	      27
24.780	   0.182	      23
24.800	   0.261	      33
24.820	   0.285	      36
24.840	   0.174	      22
24.860	   0.253	      32
24.880	   0.127	      16
24.900	   0.269	      34
24.920	   0.277	      35
24.940	   0.214	      27
24.960	   0.237	      30
24.980	   0.245	      31
25.000	   0.237	      30
25.020	   0.253	      32
25.040	   0.324	      41
25.060	   0.229	      29
25.080	   0.261	      33
25.100	   0.261	      33
25.120	   0.316	      40
25.140	   0.229	      29
25.160	   0.253	      32
25.180	   0.277	      35
25.200	   0.309	      39
25.220	   0.182	      23
25.240	   0.277	      35
25.260	   0.229	      29
25.280	   0.222	      28
25.300	   0.261	      33
25.320	   0.285	      36
25.340	   0.301	      38
25.360	   0.324	      41
25.380	   0.222	      28
25.400	   0.253	      32
25.420	   0.293	      37
25.440	   0.229	      29
25.460	   0.301	      38
25.480	   0.229	      29
25.500	   0.332	      42
25.520	   0.301	      38
25.540	   0.253	      32
25.560	   0.245	      31
25.580	   0.293	      37
25.600	   0.261	      33
25.620	   0.285	      36
25.640	   0.309	      39
25.660	   0.309	      39
25.680	   0.253	      32
25.700	   0.229	      29
25.720	   0.214	      27
25.740	   0.182	      23
25.760	   0.214	      27
25.780	   0.245	      31
25.800	   0.182	      23
25.820	   0.190	      24
25.840	   0.269	      34
25.860	   0.190	      24
25.880	   0.253	      32
25.900	   0.277	      35
25.920	   0.261	      33
25.940	   0.182	      23
25.960	   0.253	      32
25.980	   0.182	      23
26.000	   0.222	      28
26.020	   0.269	      34
26.040	   0.206	      26
26.060	   0.261	      33
26.080	   0.222	      28
26.100	   0.158	      20
26.120	   0.340	      43
26.140	   0.285	      36
26.160	   0.277	      35
26.180	   0.285	      36
26.200	   0.253	      32
26.220	   0.269	      34
26.240	   0.182	      23
26.260	   0.214	      27
26.280	   0.380	      48
26.300	   0.269	      34
26.320	   0.261	      33
26.340	   0.158	      20
26.360	   0.229	      29
26.380	   0.309	      39
26.400	   0.324	      41
26.420	   0.253	      32
26.441	   0.269	      34
26.461	   0.245	      31
26.481	   0.214	      27
26.501	   0.261	      33
26.521	   0.324	      41
26.541	   0.277	      35
26.561	   0.237	      30
26.581	   0.277	      35
26.601	   0.222	      28
26.621	   0.229	      29
26.641	   0.269	      34
26.661	   0.229	      29
26.681	   0.198	      25
26.701	   0.324	      41
26.721	   0.253	      32
26.741	   0.277	      35
26.761	   0.229	      29
26.781	   0.309	      39
26.801	   0.285	      36
26.821	   0.237	      30
26.841	   0.269	      34
26.861	   0.222	      28
26.881	   0.324	      41
26.901	   0.253	      32
26.921	   0.190	      24
26.941	   0.309	      39
26.961	   0.277	      35
26.981	   0.277	      35
27.001	   0.222	      28
27.021	   0.229	      29
27.041	   0.198	      25
27.061	   0.324	      41
27.081	   0.293	      37
27.101	   0.372	      47
27.121	   0.301	      38
27.141	   0.293	      37
27.161	   0.214	      27
27.181	   0.277	      35
27.201	   0.269	      34
27.221	   0.316	      40
27.241	   0.214	      27
27.261	   0.269	      34
27.281	   0.229	      29
27.301	   0.214	      27
27.321	   0.253	      32
27.341	   0.285	      36
27.361	   0.222	      28
27.381	   0.261	      33
27.401	   0.332	      42
27.421	   0.277	      35
27.441	   0.158	      20
27.461	   0.182	      23
27.481	   0.253	      32
27.501	   0.301	      38
27.521	   0.332	      42
27.541	   0.309	      39
27.561	   0.340	      43
27.581	   0.309	      39
27.601	   0.229	      29
27.621	   0.277	      35
27.641	   0.261	      33
27.661	   0.253	      32
27.681	   0.269	      34
27.701	   0.261	      33
27.721	   0.277	      35
27.741	   0.285	      36
27.761	   0.237	      30
27.781	   0.222	      28
27.801	   0.277	      35
27.821	   0.222	      28
27.841	   0.245	      31
27.861	   0.332	      42
27.881	   0.277	      35
27.901	   0.214	      27
27.921	   0.237	      30
27.941	   0.222	      28
27.961	   0.269	      34
27.981	   0.214	      27
28.001	   0.174	      22
28.021	   0.277	      35
28.041	   0.229	      29
28.061	   0.396	      50
28.081	   0.277	      35
28.101	   0.229	      29
28.121	   0.237	      30
28.141	   0.190	      24
28.161	   0.229	      29
28.181	   0.269	      34
28.201	   0.206	      26
28.221	   0.198	      25
28.241	   0.301	      38
28.261	   0.269	      34
28.281	   0.237	      30
28.301	   0.237	      30
28.321	   0.261	      33
28.341	   0.229	      29
28.361	   0.237	      30
28.381	   0.198	      25
28.401	   0.237	      30
28.421	   0.245	      31
28.441	   0.237	      30
28.461	   0.293	      37
28.481	   0.253	      32
28.501	   0.332	      42
28.521	   0.269	      34
28.541	   0.269	      34
28.561	   0.301	      38
28.581	   0.277	      35
28.601	   0.277	      35
28.621	   0.182	      23
28.641	   0.222	      28
28.661	   0.166	      21
28.681	   0.356	      45
28.701	   0.261	      33
28.721	   0.237	      30
28.741	   0.245	      31
28.761	   0.348	      44
28.782	   0.253	      32
28.802	   0.277	      35
28.822	   0.277	      35
28.842	   0.237	      30
28.862	   0.277	      35
28.882	   0.277	      35
28.902	   0.261	      33
28.922	   0.229	      29
28.942	   0.316	      40
28.962	   0.293	      37
28.982	   0.261	      33
29.002	   0.324	      41
29.022	   0.316	      40
29.042	   0.261	      33
29.062	   0.166	      21
29.082	   0.190	      24
29.102	   0.261	      33
29.122	   0.293	      37
29.142	   0.206	      26
29.162	   0.245	      31
29.182	   0.182	      23
29.202	   0.198	      25
29.222	   0.269	      34
29.242	   0.222	      28
29.262	   0.269	      34
29.282	   0.301	      38
29.302	   0.245	      31
29.322	   0.229	      29
29.342	   0.166	      21
29.362	   0.269	      34
29.382	   0.206	      26
29.402	   0.301	      38
29.422	   0.206	      26
29.442	   0.222	      28
29.462	   0.245	      31
29.482	   0.142	      18
29.502	   0.253	      32
29.522	   0.245	      31
29.542	   0.229	      29
29.562	   0.245	      31
29.582	   0.174	      22
29.602	   0.214	      27
29.622	   0.261	      33
29.642	   0.245	      31
29.662	   0.214	      27
29.682	   0.245	      31
29.702	   0.253	      32
29.722	   0.222	      28
29.742	   0.222	      28
29.762	   0.222	      28
29.782	   0.198	      25
29.802	   0.348	      44
29.822	   0.253	      32
29.842	   0.245	      31
29.862	   0.135	      17
29.882	   0.222	      28
29.902	   0.324	      41
29.922	   0.214	      27
29.942	   0.301	      38
29.962	   0.214	      27
29.982	   0.293	      37
30.002	   0.261	      33
30.022	   0.285	      36
30.042	   0.206	      26
30.062	   0.158	      20
30.082	   0.214	      27
30.102	   0.214	      27
30.122	   0.190	      24
30.142	   0.293	      37
30.162	   0.166	      21
30.182	   0.198	      25
30.202	   0.206	      26
30.222	   0.229	      29
30.242	   0.214	      27
30.262	   0.174	      22
30.282	   0.182	      23
30.302	   0.214	      27
30.322	   0.285	      36
30.342	   0.198	      25
30.362	   0.237	      30
30.382	   0.206	      26
30.402	   0.237	      30
30.422	   0.237	      30
30.442	   0.182	      23
30.462	   0.166	      21
30.482	   0.277	      35
30.502	   0.253	      32
30.522	   0.253	      32
30.542	   0.253	      32
30.562	   0.269	      34
30.582	   0.206	      26
30.602	   0.253	      32
30.622	   0.198	      25
30.642	   0.269	      34
30.662	   0.214	      27
30.682	   0.190	      24
30.702	   0.142	      18
30.722	   0.277	      35
30.742	   0.301	      38
30.762	   0.261	      33
30.782	   0.269	      34
30.802	   0.229	      29
30.822	   0.222	      28
30.842	   0.214	      27
30.862	   0.237	      30
30.882	   0.285	      36
30.902	   0.214	      27
30.922	   0.174	      22
30.942	   0.261	      33
30.962	   0.198	      25
30.982	   0.301	      38
31.002	   0.285	      36
31.022	   0.198	      25
31.042	   0.277	      35
31.062	   0.222	      28
31.082	   0.222	      28
31.102	   0.182	      23
31.123	   0.174	      22
31.143	   0.198	      25
31.163	   0.316	      40
31.183	   0.277	      35
31.203	   0.245	      31
31.223	   0.198	      25
31.243	   0.269	      34
31.263	   0.237	      30
31.283	   0.182	      23
31.303	   0.277	      35
31.323	   0.222	      28
31.343	   0.222	      28
31.363	   0.301	      38
31.383	   0.198	      25
31.403	   0.198	      25
31.423	   0.261	      33
31.443	   0.214	      27
31.463	   0.222	      28
31.483	   0.261	      33
31.503	   0.206	      26
31.523	   0.229	      29
31.543	   0.190	      24
31.563	   0.245	      31
31.583	   0.198	      25
31.603	   0.253	      32
31.623	   0.285	      36
31.643	   0.190	      24
31.663	   0.182	      23
31.683	   0.182	      23
31.703	   0.198	      25
31.723	   0.214	      27
31.743	   0.214	      27
31.763	   0.174	      22
31.783	   0.214	      27
31.803	   0.190	      24
31.823	   0.309	      39
31.843	   0.237	      30
31.863	   0.285	      36
31.883	   0.198	      25
31.903	   0.277	      35
31.923	   0.206	      26
31.943	   0.214	      27
31.963	   0.214	      27
31.983	   0.237	      30
32.003	   0.214	      27
32.023	   0.174	      22
32.043	   0.111	      14
32.063	   0.198	      25
32.083	   0.237	      30
32.103	   0.198	      25
32.123	   0.206	      26
32.143	   0.206	      26
32.163	   0.174	      22
32.183	   0.190	      24
32.203	   0.142	      18
32.223	   0.222	      28
32.243	   0.229	      29
32.263	   0.166	      21
32.283	   0.237	      30
32.303	   0.198	      25
32.323	   0.222	      28
32.343	   0.198	      25
32.363	   0.222	      28
32.383	   0.182	      23
32.403	   0.206	      26
32.423	   0.174	      22
32.443	   0.261	      33
32.463	   0.214	      27
32.483	   0.166	      21
32.503	   0.214	      27
32.523	   0.198	      25
32.543	   0.198	      25
32.563	   0.214	      27
32.583	   0.245	      31
32.603	   0.237	      30
32.623	   0.206	      26
32.643	   0.174	      22
32.663	   0.150	      19
32.683	   0.261	      33
32.703	   0.158	      20
32.723	   0.190	      24
32.743	   0.261	      33
32.763	   0.135	      17
32.783	   0.174	      22
32.803	   0.198	      25
32.823	   0.245	      31
32.843	   0.237	      30
32.863	   0.166	      21
32.883	   0.269	      34
32.903	   0.222	      28
32.923	   0.135	      17
32.943	   0.158	      20
32.963	   0.182	      23
32.983	   0.182	      23
33.003	   0.229	      29
33.023	   0.142	      18
33.043	   0.206	      26
33.063	   0.190	      24
33.083	   0.166	      21
33.103	   0.166	      21
33.123	   0.222	      28
33.143	   0.166	      21
33.163	   0.174	      22
33.183	   0.158	      20
33.203	   0.127	      16
33.223	   0.142	      18
33.243	   0.214	      27
33.263	   0.214	      27
33.283	   0.198	      25
33.303	   0.198	      25
33.323	   0.206	      26
33.343	   0.127	      16
33.363	   0.198	      25
33.383	   0.190	      24
33.403	   0.261	      33
33.423	   0.214	      27
33.443	   0.229	      29
33.464	   0.190	      24
33.484	   0.166	      21
33.504	   0.198	      25
33.524	   0.253	      32
33.544	   0.142	      18
33.564	   0.190	      24
33.584	   0.182	      23
33.604	   0.150	      19
33.624	   0.198	      25
33.644	   0.222	      28
33.664	   0.127	      16
33.684	   0.190	      24
33.704	   0.135	      17
33.724	   0.174	      22
33.744	   0.150	      19
33.764	   0.142	      18
33.784	   0.198	      25
33.804	   0.158	      20
33.824	   0.150	      19
33.844	   0.198	      25
33.864	   0.237	      30
33.884	   0.150	      19
33.904	   0.190	      24
33.924	   0.150	      19
33.944	   0.198	      25
33.964	   0.190	      24
33.984	   0.198	      25
34.004	   0.182	      23
34.024	   0.166	      21
34.044	   0.206	      26
34.064	   0.190	      24
34.084	   0.190	      24
34.104	   0.222	      28
34.124	   0.214	      27
34.144	   0.142	      18
34.164	   0.150	      19
34.184	   0.158	      20
34.204	   0.190	      24
34.224	   0.158	      20
34.244	   0.214	      27
34.264	   0.111	      14
34.284	   0.174	      22
34.304	   0.103	      13
34.324	   0.182	      23
34.344	   0.127	      16
34.364	   0.150	      19
34.384	   0.166	      21
34.404	   0.206	      26
34.424	   0.166	      21
34.444	   0.237	      30
34.464	   0.142	      18
34.484	   0.166	      21
34.504	   0.111	      14
34.524	   0.222	      28
34.544	   0.253	      32
34.564	   0.198	      25
34.584	   0.198	      25
34.604	   0.127	      16
34.624	   0.071	       9
34.644	   0.222	      28
34.664	   0.261	      33
34.684	   0.111	      14
34.704	   0.158	      20
34.724	   0.190	      24
34.744	   0.182	      23
34.764	   0.190	      24
34.784	   0.127	      16
34.804	   0.142	      18
34.824	   0.206	      26
34.844	   0.190	      24
34.864	   0.166	      21
34.884	   0.182	      23
34.904	   0.119	      15
34.924	   0.158	      20
34.944	   0.174	      22
34.964	   0.182	      23
34.984	   0.166	      21
35.004	   0.111	      14
35.024	   0.079	      10
35.044	   0.142	      18
35.064	   0.182	      23
35.084	   0.111	      14
35.104	   0.158	      20
35.124	   0.174	      22
35.144	   0.135	      17
35.164	   0.182	      23
35.184	   0.119	      15
35.204	   0.190	      24
35.224	   0.158	      20
35.244	   0.142	      18
35.264	   0.174	      22
35.284	   0.182	      23
35.304	   0.261	      33
35.324	   0.158	      20
35.344	   0.127	      16
35.364	   0.087	      11
35.384	   0.182	      23
35.404	   0.127	      16
35.424	   0.166	      21
35.444	   0.142	      18
35.464	   0.190	      24
35.484	   0.198	      25
35.504	   0.111	      14
35.524	   0.119	      15
35.544	   0.135	      17
35.564	   0.158	      20
35.584	   0.111	      14
35.604	   0.158	      20
35.624	   0.135	      17
35.644	   0.103	      13
35.664	   0.198	      25
35.684	   0.174	      22
35.704	   0.190	      24
35.724	   0.127	      16
35.744	   0.182	      23
35.764	   0.158	      20
35.784	   0.150	      19
35.805	   0.142	      18
35.825	   0.119	      15
35.845	   0.166	      21
35.865	   0.158	      20
35.885	   0.206	      26
35.905	   0.111	      14
35.925	   0.150	      19
35.945	   0.182	      23
35.965	   0.142	      18
35.985	   0.182	      23
36.005	   0.158	      20
36.025	   0.111	      14
36.045	   0.142	      18
36.065	   0.103	      13
36.085	   0.182	      23
36.105	   0.095	      12
36.125	   0.135	      17
36.145	   0.166	      21
36.165	   0.119	      15
36.185	   0.119	      15
36.205	   0.135	      17
36.225	   0.127	      16
36.245	   0.166	      21
36.265	   0.182	      23
36.285	   0.190	      24
36.305	   0.135	      17
36.325	   0.142	      18
36.345	   0.158	      20
36.365	   0.127	      16
36.385	   0.103	      13
36.405	   0.095	      12
36.425	   0.119	      15
36.445	   0.142	      18
36.465	   0.071	       9
36.485	   0.111	      14
36.505	   0.111	      14
36.525	   0.214	      27
36.545	   0.119	      15
36.565	   0.142	      18
36.585	   0.111	      14
36.605	   0.127	      16
36.625	   0.150	      19
36.645	   0.158	      20
36.665	   0.127	      16
36.685	   0.135	      17
36.705	   0.166	      21
36.725	   0.119	      15
36.745	   0.119	      15
36.765	   0.150	      19
36.785	   0.103	      13
36.805	   0.182	      23
36.825	   0.135	      17
36.845	   0.158	      20
36.865	   0.150	      19
36.885	   0.111	      14
36.905	   0.166	      21
36.925	   0.142	      18
36.945	   0.142	      18
36.965	   0.119	      15
36.985	   0.135	      17
37.005	   0.119	      15
37.025	   0.119	      15
37.045	   0.071	       9
37.065	   0.174	      22
37.085	   0.158	      20
37.105	   0.127	      16
37.125	   0.142	      18
37.145	   0.158	      20
37.165	   0.142	      18
37.185	   0.032	       4
37.205	   0.174	      22
37.225	   0.071	       9
37.245	   0.111	      14
37.265	   0.119	      15
37.285	   0.103	      13
37.305	   0.063	       8
37.325	   0.087	      11
37.345	   0.142	      18
37.365	   0.103	      13
37.385	   0.095	      12
37.405	   0.111	      14
37.425	   0.103	      13
37.445	   0.135	      17
37.465	   0.166	      21
37.485	   0.079	      10
37.505	   0.103	      13
37.525	   0.174	      22
37.545	   0.071	       9
37.565	   0.103	      13
37.585	   0.079	      10
37.605	   0.119	      15
37.625	   0.071	       9
37.645	   0.095	      12
37.665	   0.127	      16
37.685	   0.071	       9
37.705	   0.087	      11
37.725	   0.103	      13
37.745	   0.079	      10
37.765	   0.127	      16
37.785	   0.119	      15
37.805	   0.087	      11
37.825	   0.087	      11
37.845	   0.111	      14
37.865	   0.119	      15
37.885	   0.127	      16
37.905	   0.040	       5
37.925	   0.087	      11
37.945	   0.087	      11
37.965	   0.087	      11
37.985	   0.158	      20
38.005	   0.040	       5
38.025	   0.103	      13
38.045	   0.079	      10
38.065	   0.103	      13
38.085	   0.087	      11
38.105	   0.103	      13
38.125	   0.111	      14
38.146	   0.071	       9
38.166	   0.095	      12
38.186	   0.119	      15
38.206	   0.111	      14
38.226	   0.071	       9
38.246	   0.071	       9
38.266	   0.119	      15
38.286	   0.158	      20
38.306	   0.055	       7
38.326	   0.127	      16
38.346	   0.111	      14
38.366	   0.079	      10
38.386	   0.079	      10
38.406	   0.032	       4
38.426	   0.095	      12
38.446	   0.135	      17
38.466	   0.127	      16
38.486	   0.087	      11
38.506	   0.079	      10
38.526	   0.111	      14
38.546	   0.103	      13
38.566	   0.135	      17
38.586	   0.087	      11
38.606	   0.111	      14
38.626	   0.079	      10
38.646	   0.135	      17
38.666	   0.047	       6
38.686	   0.071	       9
38.706	   0.087	      11
38.726	   0.079	      10
38.746	   0.079	      10
38.766	   0.079	      10
38.786	   0.087	      11
38.806	   0.079	      10
38.826	   0.135	      17
38.846	   0.063	       8
38.866	   0.087	      11
38.886	   0.119	      15
38.906	   0.055	       7
38.926	   0.095	      12
38.946	   0.047	       6
38.966	   0.087	      11
38.986	   0.087	      11
39.006	   0.071	       9
39.026	   0.055	       7
39.046	   0.055	       7
39.066	   0.103	      13
39.086	   0.087	      11
39.106	   0.095	      12
39.126	   0.071	       9
39.146	   0.095	      12
39.166	   0.095	      12
39.186	   0.095	      12
39.206	   0.047	       6
39.226	   0.055	       7
39.246	   0.040	       5
39.266	   0.095	      12
39.286	   0.055	       7
39.306	   0.071	       9
39.326	   0.103	      13
39.346	   0.127	      16
39.366	   0.087	      11
39.386	   0.071	       9
39.406	   0.063	       8
39.426	   0.095	      12
39.446	   0.063	       8
39.466	   0.047	       6
39.486	   0.063	       8
39.506	   0.079	      10
39.526	   0.119	      15
39.546	   0.047	       6
39.566	   0.047	       6
39.586	   0.079	      10
39.606	   0.047	       6
39.626	   0.055	       7
39.646	   0.079	      10
39.666	   0.071	       9
39.686	   0.024	       3
39.706	   0.016	       2
39.726	   0.024	       3
39.746	   0.111	      14
39.766	   0.055	       7
39.786	   0.087	      11
39.806	   0.024	       3
39.826	   0.055	       7
39.846	   0.063	       8
39.866	   0.032	       4
39.886	   0.095	      12
39.906	   0.047	       6
39.926	   0.032	       4
39.946	   0.071	       9
39.966	   0.071	       9
39.986	   0.040	       5
40.006	   0.055	       7
40.026	   0.047	       6
40.046	   0.055	       7
40.066	   0.032	       4
40.086	   0.087	      11
40.106	   0.055	       7
40.126	   0.047	       6
40.146	   0.047	       6
40.166	   0.071	       9
40.186	   0.047	       6
40.206	   0.024	       3
40.226	   0.087	      11
40.246	   0.040	       5
40.266	   0.071	       9
40.286	   0.047	       6
40.306	   0.079	      10
40.326	   0.063	       8
40.346	   0.016	       2
40.366	   0.040	       5
40.386	   0.063	       8
40.406	   0.095	      12
40.426	   0.063	       8
40.446	   0.063	       8
40.466	   0.063	       8
40.487	   0.095	      12
40.507	   0.063	       8
40.527	   0.063	       8
40.547	   0.047	       6
40.567	   0.103	      13
40.587	   0.063	       8
40.607	   0.016	       2
40.627	   0.063	       8
40.647	   0.063	       8
40.667	   0.016	       2
40.687	   0.032	       4
40.707	   0.040	       5
40.727	   0.040	       5
40.747	   0.024	       3
40.767	   0.063	       8
40.787	   0.032	       4
40.807	   0.032	       4
40.827	   0.055	       7
40.847	   0.055	       7
40.867	   0.071	       9
40.887	   0.040	       5
40.907	   0.063	       8
40.927	   0.063	       8
40.947	   0.032	       4
